File: data/XRD_6_component_systems_repeat.csv
HTA1;HTA1;HTA2;HTA3;HTA4;HTA5;HTA6;HTA7;HTA8;HTA9;HTA10;HTA11;HTA12;HTA13;HTB1;HTB2;HTB3;HTB4;HTB5;HTB6;HTB7;HTB8;HTB9;HTB10;HTB11;HTB12;HTB13;HTC1;HTC2;HTC3;HTC4;HTC5;HTC6;HTC7;HTC8;HTC9;HTC10;HTC11;HTC12;HTC13;HTD1;HTD2;HTD3;HTD4;HTD5;HTD6;HTD7;HTD8;HTD9;HTD10;HTD11;HTD12;HTD13;HTE1;HTE2;HTE3;HTE4;HTE5;HTE6;HTE7;HTE8;HTE9;HTE10;HTE11;HTE12;HTE13;HTF1;HTF2;HTF3;HTF4;HTF5;HTF6;HTF7;HTF8;HTF9;HTF10;HTF11;HTF12;HTF13;HTG1;HTG2;HTG3;HTG4;HTG5;HTG6;HTG7;HTG8;HTG9;HTG10;HTG11;HTG12;HTG13;HTH1;HTH2;HTH3;HTH4;HTH5;HTH6;HTH7;HTH8;HTH9;HTH10;HTH11;HTH12;HTH13;HTI1;HTI2;HTI3;HTI4;HTI5;HTI6;HTI7;HTI8;HTI9;HTI10;HTI11;HTI12;HTI13;HTJ1;HTJ2;HTJ3;HTJ4;HTJ5;HTJ6;HTJ7;HTJ8;HTJ9;HTJ10;HTJ11;HTJ12;HTJ13;HTK1;HTK2;HTK3;HTK4;HTK5;HTK6;HTK7;HTK8;HTK9;HTK10;HTK11;HTK12;HTK13;HTL1;HTL2;HTL3;HTL4;HTL5;HTL6;HTL7;HTL8;HTL9;HTL10;HTL11;HTL12;HTL13;HTM1;HTM2;HTM3;HTM4;HTM5;HTM6;HTM7;HTM8;HTM9;HTM10;HTM11;HTM12;HTM13
25;1500;1105;203;194;201;173;214;231;548;847;1075;2288;2301;1071;191;175;190;183;210;175;201;233;550;839;1142;2363;196;190;208;197;199;192;196;194;191;289;611;903;1134;194;202;180;204;161;163;208;195;187;190;428;823;1015;198;180;199;173;215;185;201;178;201;190;355;689;938;200;191;189;193;188;201;193;209;200;205;284;579;886;190;188;191;192;180;182;194;198;182;195;260;566;851;195;212;190;227;210;190;201;201;186;185;281;642;911;181;194;180;228;190;193;184;188;199;177;370;711;927;171;183;185;178;176;181;186;175;190;203;450;715;1063;205;184;182;207;181;185;194;203;195;332;647;866;1148;1266;196;202;184;179;189;206;183;251;553;866;1080;2233;1540;1284;183;204;197;210;201;268;596;885;1185;2260;2151
27.85;1200;908;181;188;197;188;192;283;515;774;956;1905;1860;863;213;176;184;178;186;182;204;292;576;768;916;1916;210;184;218;189;185;189;198;192;200;345;591;770;958;189;184;188;172;173;184;174;177;183;237;504;762;908;185;199;210;205;187;216;209;199;198;188;400;631;847;206;188;195;175;201;202;193;205;194;196;378;608;792;189;209;207;186;210;185;192;203;192;181;337;574;780;201;191;183;197;188;182;176;193;197;200;395;633;831;201;196;193;183;182;192;154;220;187;186;444;637;857;199;180;180;201;200;183;206;187;190;257;534;726;897;178;206;195;187;202;179;178;184;189;411;578;792;982;1011;168;186;192;200;187;186;192;316;552;782;948;1859;1177;1020;202;227;195;194;191;360;568;796;955;1865;1748
30.7;985;778;232;257;252;246;315;435;630;783;877;1503;1555;726;269;247;264;255;247;290;294;432;633;802;1001;1560;243;241;235;248;270;255;251;275;315;485;676;852;920;219;264;236;243;275;262;244;279;271;404;582;770;912;214;224;255;229;262;280;259;266;274;342;553;717;926;235;236;226;253;249;242;291;293;287;320;522;661;839;234;231;271;260;253;267;254;280;281;295;494;692;837;231;239;266;249;236;282;281;276;280;306;489;641;802;225;246;227;234;250;250;243;282;293;365;558;717;837;246;241;244;217;244;239;242;266;272;466;601;782;822;245;234;205;221;238;240;241;233;280;531;657;835;967;810;210;218;229;239;229;256;301;415;609;798;915;1521;980;842;250;207;240;252;295;421;625;783;908;1501;1441
33.55;766;593;149;161;150;159;202;329;455;561;666;1310;1235;585;162;158;183;144;163;146;179;288;465;577;655;1309;153;149;130;147;136;142;139;162;230;360;460;611;648;162;131;141;137;137;142;144;147;165;298;406;547;574;128;148;139;135;168;148;163;146;160;251;398;534;615;150;148;142;155;146;169;131;160;178;226;358;481;527;156;141;162;156;136;156;153;145;149;221;323;461;561;138;157;138;149;144;155;152;151;137;221;364;483;549;155;157;159;145;140;147;121;161;141;244;416;499;582;155;150;153;145;159;149;153;150;183;331;414;575;613;153;159;148;148;148;153;150;144;244;354;494;586;639;717;147;145;130;154;152;163;199;332;461;571;660;1182;774;665;140;137;154;148;233;358;451;589;667;1224;1161
36.4;699;522;116;141;133;134;243;294;381;465;550;1121;1017;502;117;124;142;121;129;151;206;299;406;472;585;1033;135;155;142;142;126;139;140;169;261;327;444;499;491;123;134;134;113;120;133;127;119;182;315;400;495;485;135;140;129;127;142;148;129;145;146;257;332;434;414;140;128;113;147;127;129;127;134;137;233;362;408;427;140;128;148;141;129;145;120;130;160;272;314;404;419;139;131;125;155;130;142;129;140;156;251;352;405;424;133;128;127;127;148;145;111;138;167;257;357;429;433;137;143;140;124;132;136;128;136;188;297;403;463;457;138;123;129;132;121;145;133;145;260;347;402;526;477;613;131;128;127;124;140;150;226;339;427;529;531;984;673;593;127;139;130;139;248;326;433;517;590;1052;939
39.25;578;471;118;127;124;139;233;283;373;409;440;923;816;456;115;111;117;128;135;162;240;297;343;426;497;829;134;117;111;107;115;119;111;153;239;334;334;405;418;108;112;116;118;115;129;131;119;207;301;333;417;345;119;128;101;125;125;132;138;130;181;273;342;378;357;116;128;110;126;117;118;111;123;161;238;296;373;347;110;108;104;126;131;118;125;113;143;221;297;343;326;120;128;128;115;105;122;121;129;160;242;307;368;363;108;126;131;121;131;119;96;124;181;264;347;336;320;141;108;119;118;113;123;120;132;219;251;370;392;364;114;116;127;121;132;121;140;166;265;328;356;383;361;518;121;113;116;132;102;151;232;306;397;436;445;834;617;510;119;120;134;165;224;311;389;461;493;899;786
42.1;497;462;91;89;96;134;218;261;298;347;419;770;704;400;90;84;102;95;99;141;214;283;323;385;372;759;96;84;90;98;110;108;106;139;202;278;322;331;291;91;104;80;87;95;80;94;123;186;255;296;296;260;81;94;97;94;96;101;102;113;187;234;297;298;303;95;80;101;105;99;93;101;115;161;228;270;279;274;106;98;98;103;106;92;86;101;142;216;256;273;252;103;98;105;112;100;85;83;105;159;224;289;286;256;101;97;99;96;100;79;76;121;178;248;270;296;252;93;104;106;96;100;89;104;121;203;247;301;316;287;119;100;96;103;88;91;96;178;226;292;308;308;291;468;100;104;105;105;104;158;195;257;335;367;383;677;497;491;110;104;93;164;221;266;303;370;397;770;671
44.95;470;371;102;119;124;200;243;313;347;367;400;710;649;373;106;115;113;104;155;174;245;287;319;342;345;641;111;114;109;115;111;101;144;196;234;309;307;314;280;103;104;93;106;106;111;126;171;217;252;316;282;266;108;113;116;114;106;98;128;139;207;243;294;263;253;102;93;109;104;118;104;96;162;190;232;274;250;237;87;93;107;108;109;120;114;124;181;247;284;251;233;132;92;109;96;108;101;103;137;204;233;240;262;261;108;99;100;106;91;114;108;150;195;244;290;244;248;116;98;118;104;111;117;129;166;227;253;303;262;283;109;101;103;100;96;111;133;206;216;285;309;291;277;403;116;112;117;126;115;169;268;302;290;338;302;615;425;442;98;104;119;183;248;268;324;347;390;627;585
47.8;425;340;74;74;105;153;184;232;256;304;290;615;554;346;69;69;57;78;114;143;190;231;260;248;241;552;84;67;76;65;79;78;110;150;193;222;219;209;192;61;67;72;69;70;73;87;136;155;212;213;215;214;68;58;81;66;67;78;86;133;167;201;202;186;163;69;84;75;68;80;74;70;117;156;179;209;184;165;79;69;75;72;80;83;67;120;136;192;195;182;172;65;63;66;74;68;69;71;124;167;199;213;186;186;78;73;69;63;68;73;82;146;159;197;200;190;187;81;72;83;76;71;68;88;137;191;205;212;182;186;73;68;80;73;82;84;130;149;195;240;205;227;194;378;75;87;72;76;107;154;196;222;223;255;244;546;451;406;75;75;119;165;202;227;253;290;269;557;531
50.65;377;308;72;96;126;151;185;228;257;259;248;501;487;316;79;67;53;83;124;160;189;230;232;232;204;550;72;70;55;56;77;83;127;180;199;233;203;179;160;68;78;64;68;55;72;102;169;181;187;182;184;162;73;65;72;65;65;67;99;122;178;199;178;168;167;73;76;61;78;69;75;87;127;169;176;174;153;180;79;80;79;67;74;62;102;131;175;189;153;156;137;64;66;66;75;64;63;96;152;158;188;181;170;144;78;78;74;61;76;66;101;136;162;204;194;175;167;78;73;72;74;78;80;129;143;194;183;190;152;170;81;65;74;70;82;92;136;162;190;187;210;203;166;371;76;68;56;80;127;154;195;241;210;205;219;499;396;343;98;85;132;159;174;220;267;257;241;508;471
53.5;362;302;70;107;117;158;209;215;248;215;225;457;478;285;70;66;67;99;122;154;184;214;200;180;189;396;60;63;58;64;81;104;121;150;176;175;169;148;155;76;59;57;56;59;74;125;146;171;162;162;172;164;74;56;65;69;66;81;120;129;180;166;146;148;145;61;63;68;64;55;81;103;117;146;175;142;134;138;67;64;58;68;67;73;114;126;166;135;149;154;135;56;54;67;65;63;76;114;142;159;165;170;123;142;67;54;64;72;62;92;101;166;164;163;161;163;140;66;62;62;65;66;107;133;147;151;175;168;157;142;62;72;72;73;73;111;131;170;171;171;166;163;153;339;75;73;71;106;149;171;194;203;172;195;174;446;374;340;81;105;128;170;178;203;239;222;227;473;444
56.35;360;278;75;106;159;174;220;184;212;181;191;442;427;253;87;70;92;131;164;174;187;180;175;152;175;362;69;75;81;72;84;130;145;177;169;141;155;146;146;82;53;64;73;72;107;139;149;165;153;137;148;140;65;58;61;64;82;104;138;146;151;140;132;132;118;69;68;86;72;71;103;136;130;157;150;144;134;119;62;70;65;76;58;80;124;152;134;120;125;151;132;76;66;73;73;71;90;114;145;133;135;133;130;125;67;77;68;69;79;92;112;149;155;180;140;137;130;69;76;70;63;62;113;138;143;170;142;133;144;136;73;73;76;68;101;121;158;177;173;172;146;143;140;342;70;73;92;115;133;155;184;193;160;174;177;386;335;307;96;127;149;168;201;203;214;201;182;416;426
59.2;318;254;99;110;139;156;177;179;164;165;150;415;383;237;54;74;79;115;135;166;171;173;156;145;125;337;51;45;66;91;93;122;119;153;135;129;121;122;121;62;41;47;56;83;121;128;137;130;125;126;114;116;45;52;63;47;84;97;126;127;137;132;113;120;118;52;57;58;55;72;110;122;142;126;111;107;123;101;56;46;46;61;58;91;124;117;116;121;123;109;106;55;53;49;57;75;98;102;140;114;114;101;108;114;47;56;51;56;90;109;123;129;128;126;110;109;115;44;59;60;66;92;98;117;143;121;129;118;105;120;51;50;67;61;94;124;149;153;130;141;145;121;108;310;49;75;95;122;132;155;142;153;141;139;134;355;327;320;92;132;151;159;171;188;188;147;179;407;421
62.05;310;275;93;136;140;145;149;152;159;145;122;375;367;241;59;91;103;126;134;135;130;143;133;131;115;311;56;51;60;79;101;128;123;129;115;110;125;103;105;56;46;53;57;94;114;133;124;123;94;112;103;93;50;35;64;69;89;103;117;122;115;116;104;102;109;58;41;56;62;96;118;119;115;115;108;100;105;98;49;49;53;67;85;98;114;121;104;110;105;101;88;58;55;55;77;90;103;123;118;112;109;93;114;100;48;55;48;70;96;114;116;123;117;115;120;103;100;56;54;52;85;89;98;136;115;135;110;113;109;99;54;57;65;87;97;123;125;135;120;117;116;117;105;291;75;86;105;123;134;143;131;129;101;129;105;339;321;325;95;133;163;181;146;155;155;153;149;401;365
64.9;309;276;110;113;153;151;121;142;139;122;136;353;335;239;69;95;112;126;133;128;117;108;112;112;92;312;58;60;81;84;118;115;121;105;104;111;100;88;91;55;60;74;94;95;126;127;105;113;92;104;97;94;55;48;64;101;100;119;110;108;97;95;108;98;82;54;63;74;85;94;113;104;105;110;107;106;93;96;49;64;63;76;112;106;111;111;93;92;93;101;102;60;66;64;84;96;121;113;96;102;99;91;96;98;59;58;66;93;87;125;108;124;98;112;90;101;107;57;67;75;106;117;105;96;111;95;123;103;94;95;65;82;93;105;105;131;133;114;109;103;110;90;105;279;87;108;106;137;142;116;126;129;133;112;120;339;300;311;128;152;135;159;139;157;142;160;145;353;325
67.75;300;258;132;135;129;120;120;144;120;125;128;315;343;236;108;110;137;132;127;139;119;114;117;112;107;288;83;78;101;117;122;116;112;118;113;102;97;111;107;59;77;86;110;92;113;122;110;98;98;109;90;103;55;68;87;105;98;98;106;98;90;109;97;110;111;61;72;83;106;114;121;98;99;113;94;87;87;109;55;67;88;100;119;93;98;98;90;98;83;98;91;57;73;71;99;109;97;103;96;100;87;99;99;104;52;67;88;103;102;106;102;98;92;88;97;91;93;57;67;105;116;110;107;122;122;110;89;99;100;103;76;91;104;134;117;113;120;111;99;101;90;92;107;287;101;113;131;120;154;122;116;120;106;95;109;333;313;307;133;159;170;156;134;131;148;130;133;330;321
68.875;310;281;126;143;137;141;137;131;136;133;122;333;302;260;125;145;140;138;143;126;121;112;114;121;119;286;86;105;119;130;125;112;118;130;110;105;110;111;127;70;89;96;105;118;100;114;113;98;95;115;113;116;85;88;98;95;113;120;115;104;108;90;99;99;125;66;82;80;109;99;114;124;94;100;116;93;122;122;76;99;84;111;127;103;98;93;109;99;105;113;114;93;71;96;98;119;119;104;107;94;109;108;107;120;70;88;103;113;108;101;105;105;106;89;104;103;132;87;100;103;108;120;102;117;100;103;92;107;101;118;89;108;105;119;129;127;135;121;111;109;116;138;115;281;121;132;147;144;127;131;141;117;104;100;118;279;297;311;134;158;164;146;139;145;131;143;139;324;319